channel,finite_fraction,rms_uv,mad_uv,line_noise_db,high_frequency_db,median_channel_correlation,z_log_rms,z_line_noise_db,z_high_frequency_db,z_low_correlation,bad_channel_reason,bad_channel
Fp1,1.0,42.12245084475457,12.891349614948934,0.2633342063093222,-23.156876812180556,-0.3428058698390396,3.492070883841153,0.37142459487674306,-1.4992477998030416,2.593396462297598,,False
AF7,1.0,39.28629505823771,12.40461866598115,0.40032452688037684,-17.272534127151054,-0.4026589972588294,3.2975063204761432,0.6955845797769629,-0.49200225007896825,2.9103083572996558,,False
AF3,1.0,21.0339388738625,6.729615658023596,0.7004176018833066,-20.48810356966195,-0.37589377257250184,1.5537042946220643,1.405694361665922,-1.0424236283304253,2.768591149842667,,False
F1,1.0,11.100711537660887,6.082136581540885,0.523686091237918,-18.239060715752412,-0.2358696509951992,-0.23026271914031143,0.9874948598077803,-0.6574463204142137,2.0271877908531195,,False
F3,1.0,10.985260800235233,6.270859711181859,0.5326690316226583,-14.191934345420087,-0.2188428253735371,-0.25944458606899146,1.0087511778260059,0.03531585267593825,1.937033711922795,,False
F5,1.0,27.01138342836342,10.526751500093832,0.6010562997521017,-10.433851343797274,-0.23122405316325906,2.2518551765449706,1.1705758652330938,0.6786013616094291,2.0025901586857686,,False
F7,1.0,18.41293437365464,8.313808709748987,0.5502887727209255,-7.350259325635612,-0.08578875936385201,1.1822336970995562,1.0504447440907665,1.2064316569727311,1.232535584345984,,False
FT7,1.0,11.136641594586882,6.623060713875372,0.20215577361551423,-6.26302497573344,0.0374058228103752,-0.22124276935024884,0.226658163675076,1.3925377386651197,0.580241708087944,,False
FC5,1.0,6.64258413096268,3.936918616964938,0.34553563659050773,-6.39020124230507,0.025324177559768107,-1.6635929808196452,0.5659377129397416,1.370768488403626,0.6442119174348752,,False
FC3,1.0,5.174129049973624,3.0100604436339458,0.42853484827895594,-9.748896575185652,0.051200237449276556,-2.3609313939279812,0.762338619919898,0.7958477014940137,0.5072026828587806,,False
FC1,1.0,9.293804368748713,5.051091997867446,0.8956888462068874,-14.600891020774826,0.03561123678841415,-0.7261598463543477,1.8677644068159138,-0.03468683298154203,0.589743728809017,,False
C1,1.0,8.027825652634771,4.8792775368067245,-0.025792054980756342,-17.15351032531561,0.1582168217516839,-1.1348946829906115,-0.31273443258853084,-0.47162848853462525,-0.05943150970489498,,False
C3,1.0,15.600977365485868,8.237761782870773,0.044841587954965345,-15.911657867337766,0.0368946985845328,0.7196680699947922,-0.14559415193187697,-0.25905583111710173,0.5829480219261013,,False
C5,1.0,9.149168164299569,5.254257999497781,-0.14962958943957969,-10.461595533937668,0.19335208248720762,-0.769940670261846,-0.605770999938054,0.6738522819678393,-0.24546660162232456,,False
T7,1.0,15.4705113782746,9.127015007515315,-0.19149420552817153,-8.624867601490449,0.041515847479829775,0.6962275779160857,-0.704835176608058,0.9882520603352825,0.5584798426240619,,False
TP7,1.0,11.461317198073383,5.652902483516794,0.004121821720757301,-10.209975924067622,0.2874565340068149,-0.14103078519991047,-0.24194927215203063,0.7169229775120843,-0.7437332978642895,,False
CP5,1.0,8.501436146091848,4.142348446316608,-0.24278225378790197,-14.916142179644748,0.28759436547452,-0.9748962682605921,-0.8261980063330425,-0.08864958529114743,-0.7444630915025563,,False
CP3,1.0,10.644641586431636,6.1175580629876025,0.17220724556589556,-17.636719964963614,0.18836832481598853,-0.34736291320158313,0.15579100780684255,-0.5543413394291655,-0.21907847194716798,,False
CP1,1.0,13.862884613976426,8.61285545341129,0.4903051872927181,-18.96924549897473,0.1357679217310996,0.38996974957878705,0.9085056781362247,-0.7824348557094228,0.059431509704894844,,False
P1,1.0,13.978489987893541,4.792113868807136,-0.25543508411608296,-18.882039777962916,0.2789379817144523,0.4131500347551778,-0.8561383792807851,-0.7675075173300492,-0.6986290457387078,,False
P3,1.0,23.401860922628426,10.843545393201659,-0.07008711704187882,-19.158000174577804,0.02927854341295282,1.8514701675459437,-0.4175497698257347,-0.8147447188780829,0.6232742383178799,,False
P5,1.0,10.46240011579353,5.239065453507012,-0.5159127753421429,-15.530090940673333,0.28983565404599543,-0.3955643035160148,-1.472506339460044,-0.1937415539961533,-0.7563303244952617,,False
P7,1.0,11.851112651797186,5.6045010482258295,-0.38561153725611663,-11.89397635243161,0.255479447982593,-0.047679858329595246,-1.1641747201575119,0.4286661529191851,-0.5744201915080573,,False
P9,1.0,14.076810542699553,7.155175515865956,0.38919895422340545,-12.023297309988362,0.27311625579568005,0.4327141450635278,0.6692581543079492,0.40652978766015846,-0.6678040200026144,,False
PO7,1.0,12.565207806186814,5.962358039809168,-0.13870589178841414,-13.320670457253733,0.26198264698467005,0.11563611823599189,-0.5799222709848305,0.18445344050261542,-0.608853498641183,,False
PO3,1.0,13.725626977087009,6.479691314750182,-0.33896463027551393,-17.328354511022003,0.2551916105822015,0.36219560066647544,-1.0537942159040667,-0.5015572396924971,-0.5728961425578538,,False
O1,1.0,13.94260327289247,5.680974727567765,-0.06581980885081104,-14.337398001991502,0.27993313840526357,0.4059748935023415,-0.40745204501558197,0.010416279593475169,-0.7038982272552731,,False
Iz,1.0,17.51565854083818,8.397293408086774,-0.17705137668472448,-14.459102106115624,0.19844761740506342,1.0427880363484772,-0.6706591329263447,-0.010416279593475474,-0.27244657236873054,,False
Oz,1.0,12.102179757753778,5.0499005232799,-0.1321875207540712,-15.641023309646423,0.30311139038487556,0.01083544153159687,-0.5644978596303752,-0.21273027388372287,-0.8266230383779303,,False
POz,1.0,12.636982461845204,6.647187581280941,0.0020565036170704736,-18.34235276861025,0.19295209117275983,0.13153486659027355,-0.24683643120468807,-0.6751272180321607,-0.24334871721242654,,False
Pz,1.0,9.252145070641797,4.135899040537183,0.09555555153378728,-19.715347993051083,0.3364264344196229,-0.7386997020001731,-0.02558977790448468,-0.9101480867400306,-1.0030203995898008,,False
CPz,1.0,9.541467221029459,4.911664570668622,0.11718408091292393,-19.12113233304933,0.32242868425036214,-0.6527519220839144,0.02558977790448468,-0.8084339087680663,-0.9289047481085875,,False
Fpz,1.0,37.004635706383056,11.856297204731222,0.21213359612613736,-23.929694983960417,-0.37653054841808076,3.130498673690899,0.2502686697378239,-1.6315340560490537,2.7719627671434397,,False
Fp2,1.0,44.5223933051396,17.44889167923991,0.6723228038381323,-17.546911657710996,-0.25411973225522255,3.6467380529382267,1.339213684256494,-0.5389685063617456,2.1238187955371495,,False
AF8,1.0,26.486814872598973,10.315790718865593,0.04564968523966862,-9.926873621417814,-0.31586034156789855,2.1971150311665957,-0.14368195256979538,0.7653826865610022,2.4507245787325727,,False
AF4,1.0,17.862858721277018,7.244137640322353,-0.36750036529843866,-17.14655704337021,-0.36435858603490573,1.0975757513063877,-1.121318281805862,-0.47043826854398774,2.7075143442951073,,False
AFz,1.0,20.742517137655373,7.335563998950445,-0.044523296846652675,-22.668895466564607,-0.33655400908891786,1.5147615711873998,-0.35705814141043923,-1.415718157661276,2.5602939474747055,,False
Fz,1.0,12.044893871112784,5.930313861222929,0.5284830205149217,-19.185313715817813,-0.15366714943609278,-0.0024083665066657587,0.998845826179119,-0.8194200826924978,1.5919398486646794,,False
F2,1.0,9.864949970595559,5.22405805233624,-0.10984797653639307,-16.272209020786896,-0.29263187644302147,-0.559689378193338,-0.5116358305023813,-0.32077275757746077,2.3277338977430273,,False
F4,1.0,36.72607779707353,14.425619391864025,0.1622828309087189,-13.0312377494408,-0.1419290453771434,3.109407630866742,0.1323068806655731,0.2339967493297599,1.5297886301500219,,False
F6,1.0,12.09156247702206,7.296810570962225,-0.31723690809353156,-4.9570220716304885,-0.20051460868343124,0.008385593140351942,-1.0023799403182647,1.616091274462945,1.8399889937323584,,False
F8,1.0,20.765116806580288,9.805166788163113,-0.18028902158445828,-4.0132150741188095,-0.23163841472866417,1.5178010776523128,-0.6783203670736552,1.7776463450846198,2.004784131074004,,False
FT8,1.0,12.908658796444117,7.869654851114499,-0.2750013996698714,-2.939040557264543,-0.0066875355313080614,0.190906678613026,-0.9024381216861559,1.9615169249679263,0.8137083680848514,,False
FC6,1.0,8.936767987773392,5.51362664170071,-0.23078655284620508,-1.5024827525045308,-0.03512399732652169,-0.835504267963254,-0.7978125976419876,2.2074180448070493,0.9642744852313898,,False
FC4,1.0,9.655785748076157,4.842862410398553,0.17755178644661876,-6.431709280244036,-0.027182002253922852,-0.6195080505373849,0.1684377866739321,1.3636633980426978,0.9222230032611743,,False
FC2,1.0,8.187776164010517,4.452291632805865,0.6471450492805104,-12.769360326237164,0.028307508475832743,-1.07982715553601,1.2796356023657602,0.27882331420099793,0.6284156993459327,,False
FCz,1.0,8.24414991896749,4.779180396171654,0.7498748835346774,-15.727034488892924,0.03817500244805336,-1.0606749354286615,1.522725051180943,-0.22745313795874803,0.5761690357467993,,False
Cz,1.0,8.885274285431045,4.381739459145974,1.2900369031030277,-18.038338122607648,0.21299020537420976,-0.8516339864220225,2.80090960741116,-0.6230878628096791,-0.3494470451963621,,False
C2,1.0,7.80410714299081,4.172616597378321,0.8307195373786936,-15.258549715482758,0.16623977189820635,-1.2137853846378535,1.7140276312471519,-0.1472607990027929,-0.10191163470502652,,False
C4,1.0,7.213666814763327,3.805960056714791,0.3276155596130963,-10.088346778401911,0.23156397316068966,-1.433380816019057,0.5235334623460257,0.7377427057716588,-0.4477919137152174,,False
C6,1.0,8.19342699013086,4.729711998864621,0.006982822027031462,-6.612048482997352,0.1780724269571325,-1.0779014268735487,-0.23517929152701036,1.3327940437006751,-0.16456348431230539,,False
T8,1.0,13.229292926669512,8.364314803186012,-0.6627073372397789,-8.26664993498397,0.08071349243412884,0.25939064619563673,-1.819866085534151,1.049569554868554,0.35093513313946606,,False
TP8,1.0,12.036312997808206,6.590533232243527,-0.1287590739731811,-6.05185097569268,0.21873909203382455,-0.004397583630801157,-0.5563851312851044,1.4286852037506648,-0.379886399729542,,False
CP6,1.0,20.900319464227913,8.637019797032018,-0.311828773111748,-10.257813677242979,0.07247556764293929,1.5359161364857958,-0.9895826788276325,0.70873440547034,0.3945535114766541,,False
CP4,1.0,7.983381096284471,4.048956486983931,0.2471739489612293,-14.188144259421314,0.3160549598514857,-1.1503908595131378,0.33318460276559,0.03596461626087492,-0.8951569864703054,,False
CP2,1.0,9.655483698733493,5.812514157248999,0.938591674113119,-17.844018630769984,0.23221332966739003,-0.6195953669734365,1.9692853025134112,-0.5898254486616917,-0.45123014342754303,,False
P2,1.0,10.921051297270095,5.594390637508233,0.5209704609207895,-19.161993936100906,0.3349264272869607,-0.2758074835997334,0.981068867964522,-0.8154283463852023,-0.9950781228296496,,False
P4,1.0,9.83777050157615,4.814803946679202,0.312490899465292,-17.328337872555785,0.26638248676472515,-0.5673903224047913,0.487744002297349,-0.5015543916222965,-0.632149884686696,,False
P6,1.0,10.232336176220148,5.126829627203014,-0.3968634546245531,-12.695799691375218,0.27564163812268444,-0.45762769118443497,-1.1908001149229694,0.2914149707488187,-0.6811754799973856,,False
P8,1.0,12.065697130928847,5.437015003639247,-0.4605957765529786,-6.229014573929178,0.2144767773617032,0.0024083665066657587,-1.3416098102930785,1.3983594298369857,-0.3573181852006145,,False
P10,1.0,13.974368018417332,7.06881880167419,0.3021998337667399,-9.861206075027999,0.25080491370339203,0.4123268307291085,0.46339226936071776,0.7766232528235207,-0.5496693458875186,,False
PO8,1.0,14.16465416932653,7.645373659712553,0.14889493532604048,-14.286481428509322,0.18284029837487112,0.4500782887275988,0.10062712393651456,0.019131865138416523,-0.1898085338403623,,False
PO4,1.0,11.005855924631419,5.286207465155011,0.29985838745611326,-17.331957748307808,0.23292424160506114,-0.25421645830396805,0.45785170855661533,-0.5021740196652137,-0.4549942984359653,,False
O2,1.0,13.07088625960141,6.302136322395996,0.029875632559521498,-14.09417401871288,0.29585556970048604,0.22576668078396217,-0.18100806916910336,0.05204986347138724,-0.7882047303961702,,False
